#Wavelength (um) Specific flux (relative Jy)
      1.00000  0.000697475
      1.01000  0.000706030
      1.02000  0.000714629
      1.03000  0.000723273
      1.04000  0.000731961
      1.05000  0.000740695
      1.06000  0.000749475
      1.07000  0.000758302
      1.08000  0.000767175
      1.09000  0.000776096
      1.10000  0.000785065
      1.11000  0.000794082
      1.12000  0.000803149
      1.13000  0.000812265
      1.14000  0.000821431
      1.15000  0.000830647
      1.16000  0.000839915
      1.17000  0.000849235
      1.18000  0.000858607
      1.19000  0.000868032
      1.20000  0.000877510
      1.21000  0.000887042
      1.22000  0.000896630
      1.23000  0.000906272
      1.24000  0.000915970
      1.25000  0.000925725
      1.26000  0.000935537
      1.27000  0.000945406
      1.28000  0.000955334
      1.29000  0.000965321
      1.30000  0.000975368
      1.31000  0.000985475
      1.32000  0.000995643
      1.33000   0.00100587
      1.34000   0.00101617
      1.35000   0.00102652
      1.36000   0.00103694
      1.37000   0.00104742
      1.38000   0.00105797
      1.39000   0.00106859
      1.40000   0.00107927
      1.41000   0.00109002
      1.42000   0.00110083
      1.43000   0.00111172
      1.44000   0.00112268
      1.45000   0.00113370
      1.46000   0.00114480
      1.47000   0.00115597
      1.48000   0.00116721
      1.49000   0.00117853
      1.50000   0.00118992
      1.51000   0.00120139
      1.52000   0.00121293
      1.53000   0.00122455
      1.54000   0.00123625
      1.55000   0.00124802
      1.56000   0.00125988
      1.57000   0.00127182
      1.58000   0.00128384
      1.59000   0.00129594
      1.60000   0.00130813
      1.61000   0.00132040
      1.62000   0.00133275
      1.63000   0.00134519
      1.64000   0.00135772
      1.65000   0.00137034
      1.66000   0.00138305
      1.67000   0.00139585
      1.68000   0.00140874
      1.69000   0.00142173
      1.70000   0.00143480
      1.71000   0.00144798
      1.72000   0.00146124
      1.73000   0.00147461
      1.74000   0.00148808
      1.75000   0.00150164
      1.76000   0.00151530
      1.77000   0.00152907
      1.78000   0.00154294
      1.79000   0.00155692
      1.80000   0.00157100
      1.81000   0.00158518
      1.82000   0.00159948
      1.83000   0.00161388
      1.84000   0.00162840
      1.85000   0.00164303
      1.86000   0.00165777
      1.87000   0.00167263
      1.88000   0.00168760
      1.89000   0.00170269
      1.90000   0.00171790
      1.91000   0.00173323
      1.92000   0.00174869
      1.93000   0.00176426
      1.94000   0.00177997
      1.95000   0.00179580
      1.96000   0.00181175
      1.97000   0.00182784
      1.98000   0.00184406
      1.99000   0.00186041
      2.00000   0.00187690
      2.01000   0.00189352
      2.02000   0.00191029
      2.03000   0.00192719
      2.04000   0.00194423
      2.05000   0.00196142
      2.06000   0.00197875
      2.07000   0.00199623
      2.08000   0.00201368
      2.09000   0.00203098
      2.10000   0.00204841
      2.11000   0.00206599
      2.12000   0.00208371
      2.13000   0.00210158
      2.14000   0.00211959
      2.15000   0.00213776
      2.16000   0.00215571
      2.17000   0.00217371
      2.18000   0.00219184
      2.19000   0.00221012
      2.20000   0.00222855
      2.21000   0.00224712
      2.22000   0.00226584
      2.23000   0.00228465
      2.24000   0.00230322
      2.25000   0.00232194
      2.26000   0.00234081
      2.27000   0.00235982
      2.28000   0.00237898
      2.29000   0.00239829
      2.30000   0.00241775
      2.31000   0.00243713
      2.32000   0.00245646
      2.33000   0.00247594
      2.34000   0.00249557
      2.35000   0.00251534
      2.36000   0.00253527
      2.37000   0.00255535
      2.38000   0.00257559
      2.39000   0.00259560
      2.40000   0.00261572
      2.41000   0.00263600
      2.42000   0.00265643
      2.43000   0.00267701
      2.44000   0.00269775
      2.45000   0.00271864
      2.46000   0.00273957
      2.47000   0.00276038
      2.48000   0.00278134
      2.49000   0.00280246
      2.50000   0.00282373
      2.51000   0.00284516
      2.52000   0.00286675
      2.53000   0.00288851
      2.54000   0.00291015
      2.55000   0.00293184
      2.56000   0.00295368
      2.57000   0.00297569
      2.58000   0.00299786
      2.59000   0.00302019
      2.60000   0.00304268
      2.61000   0.00306532
      2.62000   0.00308777
      2.63000   0.00311039
      2.64000   0.00313317
      2.65000   0.00315612
      2.66000   0.00317923
      2.67000   0.00320252
      2.68000   0.00322598
      2.69000   0.00324944
      2.70000   0.00327288
      2.71000   0.00329649
      2.72000   0.00332026
      2.73000   0.00354334
      2.74000   0.00356760
      2.75000   0.00359202
      2.76000   0.00361661
      2.77000   0.00364113
      2.78000   0.00366578
      2.79000   0.00369059
      2.80000   0.00371556
      2.81000   0.00374071
      2.82000   0.00376603
      2.83000   0.00379152
      2.84000   0.00381713
      2.85000   0.00384270
      2.86000   0.00386844
      2.87000   0.00389436
      2.88000   0.00392046
      2.89000   0.00394674
      2.90000   0.00397319
      2.91000   0.00399983
      2.92000   0.00402649
      2.93000   0.00405324
      2.94000   0.00408017
      2.95000   0.00410728
      2.96000   0.00413458
      2.97000   0.00416207
      2.98000   0.00418975
      2.99000   0.00421763
      3.00000   0.00424544
      3.01000   0.00427345
      3.02000   0.00430165
      3.03000   0.00433005
      3.04000   0.00435865
      3.05000   0.00438745
      3.06000   0.00441645
      3.07000   0.00444556
      3.08000   0.00447473
      3.09000   0.00450410
      3.10000   0.00453368
      3.11000   0.00456347
      3.12000   0.00459347
      3.13000   0.00462368
      3.14000   0.00465411
      3.15000   0.00468457
      3.16000   0.00471520
      3.17000   0.00474605
      3.18000   0.00477711
      3.19000   0.00480840
      3.20000   0.00483992
      3.21000   0.00487166
      3.22000   0.00490360
      3.23000   0.00493557
      3.24000   0.00496778
      3.25000   0.00500022
      3.26000   0.00503290
      3.27000   0.00506581
      3.28000   0.00509897
      3.29000   0.00513237
      3.30000   0.00516590
      3.31000   0.00519957
      3.32000   0.00523349
      3.33000   0.00526766
      3.34000   0.00530209
      3.35000   0.00533677
      3.36000   0.00537171
      3.37000   0.00540692
      3.38000   0.00544218
      3.39000   0.00547770
      3.40000   0.00551348
      3.41000   0.00554954
      3.42000   0.00558587
      3.43000   0.00562247
      3.44000   0.00565935
      3.45000   0.00569645
      3.46000   0.00573369
      3.47000   0.00577121
      3.48000   0.00580903
      3.49000   0.00584713
      3.50000   0.00588553
      3.51000   0.00592423
      3.52000   0.00596323
      3.53000   0.00600239
      3.54000   0.00604180
      3.55000   0.00608151
      3.56000   0.00612154
      3.57000   0.00616189
      3.58000   0.00620255
      3.59000   0.00624354
      3.60000   0.00628484
      3.61000   0.00632628
      3.62000   0.00636806
      3.63000   0.00641017
      3.64000   0.00645262
      3.65000   0.00649542
      3.66000   0.00653856
      3.67000   0.00653478
      3.68000   0.00657911
      3.69000   0.00662368
      3.70000   0.00666862
      3.71000   0.00671394
      3.72000   0.00675965
      3.73000   0.00680574
      3.74000   0.00685222
      3.75000   0.00689909
      3.76000   0.00694617
      3.77000   0.00699361
      3.78000   0.00704145
      3.79000   0.00712980
      3.80000   0.00717784
      3.81000   0.00722628
      3.82000   0.00727514
      3.83000   0.00732437
      3.84000   0.00737388
      3.85000   0.00742382
      3.86000   0.00747420
      3.87000   0.00752501
      3.88000   0.00757627
      3.89000   0.00762798
      3.90000   0.00768014
      3.91000   0.00773265
      3.92000   0.00778555
      3.93000   0.00783893
      3.94000   0.00789278
      3.95000   0.00794711
      3.96000   0.00800193
      3.97000   0.00805726
      3.98000   0.00811308
      3.99000   0.00816922
      4.00000   0.00822588
      4.01000   0.00828306
      4.02000   0.00834077
      4.03000   0.00839901
      4.04000   0.00845779
      4.05000   0.00851712
      4.06000   0.00857694
      4.07000   0.00863720
      4.08000   0.00869804
      4.09000   0.00875945
      4.10000   0.00882144
      4.11000   0.00888403
      4.12000   0.00894722
      4.13000   0.00901102
      4.14000   0.00907530
      4.15000   0.00914016
      4.16000   0.00920565
      4.17000   0.00927179
      4.18000   0.00933858
      4.19000   0.00940603
      4.20000   0.00947415
      4.21000   0.00954292
      4.22000   0.00961222
      4.23000   0.00968223
      4.24000   0.00975294
      4.25000   0.00982437
      4.26000   0.00989654
      4.27000   0.00996944
      4.28000    0.0100431
      4.29000    0.0101174
      4.30000    0.0101924
      4.31000    0.0102682
      4.32000    0.0103448
      4.33000    0.0104222
      4.34000    0.0105004
      4.35000    0.0105795
      4.36000    0.0106593
      4.37000    0.0105162
      4.38000    0.0105972
      4.39000    0.0106791
      4.40000    0.0107619
      4.41000    0.0108456
      4.42000    0.0109302
      4.43000    0.0110158
      4.44000    0.0111022
      4.45000    0.0111895
      4.46000    0.0112777
      4.47000    0.0113669
      4.48000    0.0114572
      4.49000    0.0115485
      4.50000    0.0116408
      4.51000    0.0117342
      4.52000    0.0118285
      4.53000    0.0119239
      4.54000    0.0120204
      4.55000    0.0121180
      4.56000    0.0122168
      4.57000    0.0123167
      4.58000    0.0124179
      4.59000    0.0125203
      4.60000    0.0126237
      4.61000    0.0127283
      4.62000    0.0128343
      4.63000    0.0129415
      4.64000    0.0130501
      4.65000    0.0131601
      4.66000    0.0132715
      4.67000    0.0133841
      4.68000    0.0134981
      4.69000    0.0136135
      4.70000    0.0137304
      4.71000    0.0138488
      4.72000    0.0139688
      4.73000    0.0140904
      4.74000    0.0142135
      4.75000    0.0143382
      4.76000    0.0144644
      4.77000    0.0145923
      4.78000    0.0147220
      4.79000    0.0148535
      4.80000    0.0149868
      4.81000    0.0151220
      4.82000    0.0152589
      4.83000    0.0153977
      4.84000    0.0155383
      4.85000    0.0156810
      4.86000    0.0158258
      4.87000    0.0159727
      4.88000    0.0161217
      4.89000    0.0162729
      4.90000    0.0164262
      4.91000    0.0165817
      4.92000    0.0167395
      4.93000    0.0168997
      4.94000    0.0167044
      4.95000    0.0168645
      4.96000    0.0170270
      4.97000    0.0171921
      4.98000    0.0173595
      4.99000    0.0175297
      5.00000    0.0177025
      5.01000    0.0178782
      5.02000    0.0180568
      5.03000    0.0182383
      5.04000    0.0184228
      5.05000    0.0186104
      5.06000    0.0188010
      5.07000    0.0189948
      5.08000    0.0196303
      5.09000    0.0198374
      5.10000    0.0200482
      5.11000    0.0202628
      5.12000    0.0204812
      5.13000    0.0207034
      5.14000    0.0209296
      5.15000    0.0211600
      5.16000    0.0213947
      5.17000    0.0216339
      5.18000    0.0218776
      5.19000    0.0221261
      5.20000    0.0223794
      5.21000    0.0226375
      5.22000    0.0229008
      5.23000    0.0231694
      5.24000    0.0234435
      5.25000    0.0237234
      5.26000    0.0240090
      5.27000    0.0243008
      5.28000    0.0245987
      5.29000    0.0249029
      5.30000    0.0252139
      5.31000    0.0249095
      5.32000    0.0252245
      5.33000    0.0255468
      5.34000    0.0258766
      5.35000    0.0262141
      5.36000    0.0265595
      5.37000    0.0269132
      5.38000    0.0272757
      5.39000    0.0276472
      5.40000    0.0280281
      5.41000    0.0284188
      5.42000    0.0288198
      5.43000    0.0292313
      5.44000    0.0296536
      5.45000    0.0300876
      5.46000    0.0305336
      5.47000    0.0309923
      5.48000    0.0314641
      5.49000    0.0319498
      5.50000    0.0324499
      5.51000    0.0329650
      5.52000    0.0334958
      5.53000    0.0340433
      5.54000    0.0346083
      5.55000    0.0351917
      5.56000    0.0357944
      5.57000    0.0364175
      5.58000    0.0370621
      5.59000    0.0377290
      5.60000    0.0384199
      5.61000    0.0391360
      5.62000    0.0398790
      5.63000    0.0406502
      5.64000    0.0425957
      5.65000    0.0434548
      5.66000    0.0443486
      5.67000    0.0452794
      5.68000    0.0462496
      5.69000    0.0459782
      5.70000    0.0470044
      5.71000    0.0480772
      5.72000    0.0492004
      5.73000    0.0503772
      5.74000    0.0516115
      5.75000    0.0529079
      5.76000    0.0542712
      5.77000    0.0557067
      5.78000    0.0572203
      5.79000    0.0604935
      5.80000    0.0622344
      5.81000    0.0640776
      5.82000    0.0660320
      5.83000    0.0681081
      5.84000    0.0703172
      5.85000    0.0726720
      5.86000    0.0751868
      5.87000    0.0778775
      5.88000    0.0807621
      5.89000    0.0838606
      5.90000    0.0871962
      5.91000    0.0907954
      5.92000    0.0946882
      5.93000    0.0989086
      5.94000     0.103496
      5.95000     0.108495
      5.96000     0.113957
      5.97000     0.119942
      5.98000     0.126519
      5.99000     0.133767
      6.00000     0.141781
      6.01000     0.150668
      6.02000     0.160553
      6.03000     0.171584
      6.04000     0.183929
      6.05000     0.197784
      6.06000     0.213379
      6.07000     0.230971
      6.08000     0.250852
      6.09000     0.273343
      6.10000     0.298785
      6.11000     0.327517
      6.12000     0.359842
      6.13000     0.395968
      6.14000     0.435907
      6.15000     0.479335
      6.16000     0.525429
      6.17000     0.572664
      6.18000     0.618678
      6.19000     0.660289
      6.20000     0.693797
      6.21000     0.715634
      6.22000     0.723204
      6.23000     0.715637
      6.24000     0.694061
      6.25000     0.661250
      6.26000     0.620839
      6.27000     0.576484
      6.28000     0.531264
      6.29000     0.487427
      6.30000     0.446400
      6.31000     0.408936
      6.32000     0.375305
      6.33000     0.345466
      6.34000     0.319201
      6.35000     0.296202
      6.36000     0.276132
      6.37000     0.258655
      6.38000     0.243458
      6.39000     0.230258
      6.40000     0.218802
      6.41000     0.208871
      6.42000     0.200273
      6.43000     0.192844
      6.44000     0.186444
      6.45000     0.180951
      6.46000     0.176262
      6.47000     0.172285
      6.48000     0.163576
      6.49000     0.160865
      6.50000     0.154170
      6.51000     0.152036
      6.52000     0.148818
      6.53000     0.147598
      6.54000     0.147894
      6.55000     0.147140
      6.56000     0.146644
      6.57000     0.146376
      6.58000     0.145558
      6.59000     0.145760
      6.60000     0.146106
      6.61000     0.147674
      6.62000     0.148418
      6.63000     0.149236
      6.64000     0.150110
      6.65000     0.151022
      6.66000     0.151957
      6.67000     0.152906
      6.68000     0.153857
      6.69000     0.154806
      6.70000     0.155748
      6.71000     0.156683
      6.72000     0.157614
      6.73000     0.158543
      6.74000     0.170990
      6.75000     0.171664
      6.76000     0.172344
      6.77000     0.166938
      6.78000     0.173778
      6.79000     0.174562
      6.80000     0.175407
      6.81000     0.176326
      6.82000     0.177333
      6.83000     0.178438
      6.84000     0.179651
      6.85000     0.180979
      6.86000     0.182431
      6.87000     0.184013
      6.88000     0.185729
      6.89000     0.187584
      6.90000     0.189581
      6.91000     0.191725
      6.92000     0.194019
      6.93000     0.189166
      6.94000     0.191656
      6.95000     0.200741
      6.96000     0.203622
      6.97000     0.200035
      6.98000     0.203137
      6.99000     0.206396
      7.00000     0.217949
      7.01000     0.221662
      7.02000     0.225541
      7.03000     0.229586
      7.04000     0.233798
      7.05000     0.238181
      7.06000     0.242737
      7.07000     0.247469
      7.08000     0.252379
      7.09000     0.257470
      7.10000     0.261192
      7.11000     0.266611
      7.12000     0.272218
      7.13000     0.278019
      7.14000     0.284017
      7.15000     0.290217
      7.16000     0.296625
      7.17000     0.303247
      7.18000     0.310089
      7.19000     0.317154
      7.20000     0.324457
      7.21000     0.332006
      7.22000     0.339813
      7.23000     0.347890
      7.24000     0.356251
      7.25000     0.364914
      7.26000     0.364637
      7.27000     0.373960
      7.28000     0.383663
      7.29000     0.393772
      7.30000     0.404318
      7.31000     0.415334
      7.32000     0.426860
      7.33000     0.438935
      7.34000     0.451597
      7.35000     0.476491
      7.36000     0.490385
      7.37000     0.505004
      7.38000     0.520403
      7.39000     0.536640
      7.40000     0.553771
      7.41000     0.571845
      7.42000     0.590907
      7.43000     0.611006
      7.44000     0.632167
      7.45000     0.654396
      7.46000     0.677674
      7.47000     0.701945
      7.48000     0.727111
      7.49000     0.753006
      7.50000     0.779424
      7.51000     0.806091
      7.52000     0.833452
      7.53000     0.860388
      7.54000     0.886299
      7.55000     0.910651
      7.56000     0.932893
      7.57000     0.954998
      7.58000     0.970898
      7.59000     0.983429
      7.60000     0.992402
      7.61000     0.998660
      7.62000      1.00000
      7.63000     0.998097
      7.64000     0.993378
      7.65000     0.986372
      7.66000     0.977668
      7.67000     0.967840
      7.68000     0.957424
      7.69000     0.946892
      7.70000     0.936629
      7.71000     0.926923
      7.72000     0.917943
      7.73000     0.909806
      7.74000     0.898515
      7.75000     0.892485
      7.76000     0.887079
      7.77000     0.882096
      7.78000     0.877292
      7.79000     0.872391
      7.80000     0.870942
      7.81000     0.865240
      7.82000     0.858593
      7.83000     0.850774
      7.84000     0.841602
      7.85000     0.830957
      7.86000     0.818778
      7.87000     0.805048
      7.88000     0.789847
      7.89000     0.773314
      7.90000     0.755615
      7.91000     0.736954
      7.92000     0.717553
      7.93000     0.697645
      7.94000     0.677457
      7.95000     0.657163
      7.96000     0.637009
      7.97000     0.617173
      7.98000     0.597808
      7.99000     0.579041
      8.00000     0.560977
      8.01000     0.543698
      8.02000     0.527250
      8.03000     0.511667
      8.04000     0.497006
      8.05000     0.483285
      8.06000     0.470509
      8.07000     0.458675
      8.08000     0.447777
      8.09000     0.437801
      8.10000     0.428730
      8.11000     0.420542
      8.12000     0.413218
      8.13000     0.406731
      8.14000     0.401057
      8.15000     0.396165
      8.16000     0.392026
      8.17000     0.388584
      8.18000     0.385716
      8.19000     0.391430
      8.20000     0.389707
      8.21000     0.377916
      8.22000     0.377023
      8.23000     0.376566
      8.24000     0.376481
      8.25000     0.376642
      8.26000     0.376991
      8.27000     0.377503
      8.28000     0.378110
      8.29000     0.378750
      8.30000     0.379373
      8.31000     0.379937
      8.32000     0.380419
      8.33000     0.380810
      8.34000     0.381123
      8.35000     0.381390
      8.36000     0.381659
      8.37000     0.381995
      8.38000     0.382473
      8.39000     0.383180
      8.40000     0.384121
      8.41000     0.385295
      8.42000     0.395512
      8.43000     0.397217
      8.44000     0.392081
      8.45000     0.395644
      8.46000     0.399922
      8.47000     0.397528
      8.48000     0.403100
      8.49000     0.409289
      8.50000     0.416004
      8.51000     0.417710
      8.52000     0.424068
      8.53000     0.437696
      8.54000     0.444687
      8.55000     0.459691
      8.56000     0.465267
      8.57000     0.469566
      8.58000     0.472262
      8.59000     0.473072
      8.60000     0.471779
      8.61000     0.468253
      8.62000     0.462461
      8.63000     0.454423
      8.64000     0.444305
      8.65000     0.432408
      8.66000     0.419032
      8.67000     0.404505
      8.68000     0.389161
      8.69000     0.373320
      8.70000     0.357266
      8.71000     0.341250
      8.72000     0.325477
      8.73000     0.310106
      8.74000     0.295260
      8.75000     0.281025
      8.76000     0.267453
      8.77000     0.254577
      8.78000     0.242392
      8.79000     0.230873
      8.80000     0.220042
      8.81000     0.209872
      8.82000     0.200335
      8.83000     0.191398
      8.84000     0.183026
      8.85000     0.175186
      8.86000     0.167832
      8.87000     0.160936
      8.88000     0.154472
      8.89000     0.148409
      8.90000     0.142719
      8.91000     0.137374
      8.92000     0.132349
      8.93000     0.127621
      8.94000     0.123166
      8.95000     0.118966
      8.96000     0.115004
      8.97000     0.111263
      8.98000     0.107726
      8.99000     0.104380
      9.00000     0.101212
      9.01000    0.0981988
      9.02000    0.0953270
      9.03000    0.0926003
      9.04000    0.0900094
      9.05000    0.0875450
      9.06000    0.0851991
      9.07000    0.0829644
      9.08000    0.0808337
      9.09000    0.0788005
      9.10000    0.0768590
      9.11000    0.0750038
      9.12000    0.0732299
      9.13000    0.0715323
      9.14000    0.0699068
      9.15000    0.0683494
      9.16000    0.0668586
      9.17000    0.0654402
      9.18000    0.0640787
      9.19000    0.0627708
      9.20000    0.0615141
      9.21000    0.0603055
      9.22000    0.0591429
      9.23000    0.0580240
      9.24000    0.0569545
      9.25000    0.0559306
      9.26000    0.0549436
      9.27000    0.0539919
      9.28000    0.0530740
      9.29000    0.0521880
      9.30000    0.0513327
      9.31000    0.0505069
      9.32000    0.0497089
      9.33000    0.0489377
      9.34000    0.0481923
      9.35000    0.0474716
      9.36000    0.0467745
      9.37000    0.0461001
      9.38000    0.0454476
      9.39000    0.0448234
      9.40000    0.0442344
      9.41000    0.0436641
      9.42000    0.0431118
      9.43000    0.0425768
      9.44000    0.0420586
      9.45000    0.0415565
      9.46000    0.0410700
      9.47000    0.0406016
      9.48000    0.0401489
      9.49000    0.0397102
      9.50000    0.0392849
      9.51000    0.0388728
      9.52000    0.0384734
      9.53000    0.0380863
      9.54000    0.0377116
      9.55000    0.0373534
      9.56000    0.0370062
      9.57000    0.0366699
      9.58000    0.0363441
      9.59000    0.0360286
      9.60000    0.0357231
      9.61000    0.0354273
      9.62000    0.0351505
      9.63000    0.0348930
      9.64000    0.0346442
      9.65000    0.0344039
      9.66000    0.0341720
      9.67000    0.0339482
      9.68000    0.0337325
      9.69000    0.0335246
      9.70000    0.0333246
      9.71000    0.0331322
      9.72000    0.0329472
      9.73000    0.0327695
      9.74000    0.0325991
      9.75000    0.0324357
      9.76000    0.0322793
      9.77000    0.0321353
      9.78000    0.0320148
      9.79000    0.0319009
      9.80000    0.0317934
      9.81000    0.0316923
      9.82000    0.0315977
      9.83000    0.0315093
      9.84000    0.0314273
      9.85000    0.0313524
      9.86000    0.0312843
      9.87000    0.0312223
      9.88000    0.0311666
      9.89000    0.0311171
      9.90000    0.0310737
      9.91000    0.0310365
      9.92000    0.0310056
      9.93000    0.0309808
      9.94000    0.0309623
      9.95000    0.0309500
      9.96000    0.0309440
      9.97000    0.0309444
      9.98000    0.0309511
      9.99000    0.0309643
      10.0000    0.0309916
      10.0100    0.0310368
      10.0200    0.0310887
      10.0300    0.0311475
      10.0400    0.0312132
      10.0500    0.0312860
      10.0600    0.0313658
      10.0700    0.0314530
      10.0800    0.0315485
      10.0900    0.0316517
      10.1000    0.0317627
      10.1100    0.0318817
      10.1200    0.0320087
      10.1300    0.0321441
      10.1400    0.0322880
      10.1500    0.0324402
      10.1600    0.0325990
      10.1700    0.0327671
      10.1800    0.0329447
      10.1900    0.0331321
      10.2000    0.0333297
      10.2100    0.0335378
      10.2200    0.0337568
      10.2300    0.0339836
      10.2400    0.0342192
      10.2500    0.0344668
      10.2600    0.0347272
      10.2700    0.0350006
      10.2800    0.0352879
      10.2900    0.0355895
      10.3000    0.0359063
      10.3100    0.0362389
      10.3200    0.0365882
      10.3300    0.0369551
      10.3400    0.0373407
      10.3500    0.0377460
      10.3600    0.0381723
      10.3700    0.0386209
      10.3800    0.0390938
      10.3900    0.0395932
      10.4000    0.0401198
      10.4100    0.0406759
      10.4200    0.0412636
      10.4300    0.0418857
      10.4400    0.0425449
      10.4500    0.0432446
      10.4600    0.0439888
      10.4700    0.0447815
      10.4800    0.0456271
      10.4900    0.0465307
      10.5000    0.0474983
      10.5100    0.0485364
      10.5200    0.0496519
      10.5300    0.0508526
      10.5400    0.0521460
      10.5500    0.0535410
      10.5600    0.0550457
      10.5700    0.0566665
      10.5800    0.0584083
      10.5900    0.0602709
      10.6000    0.0622481
      10.6100    0.0643194
      10.6200    0.0664555
      10.6300    0.0686189
      10.6400    0.0707507
      10.6500    0.0727802
      10.6600    0.0746321
      10.6700    0.0762382
      10.6800    0.0775517
      10.6900    0.0785585
      10.7000    0.0792810
      10.7100    0.0797738
      10.7200    0.0801116
      10.7300    0.0803756
      10.7400    0.0806419
      10.7500    0.0809739
      10.7600    0.0814181
      10.7700    0.0820043
      10.7800    0.0827607
      10.7900    0.0837012
      10.8000    0.0848332
      10.8100    0.0861607
      10.8200    0.0876864
      10.8300    0.0894121
      10.8400    0.0913324
      10.8500    0.0934533
      10.8600    0.0957835
      10.8700    0.0983298
      10.8800     0.101100
      10.8900     0.104103
      10.9000     0.107353
      10.9100     0.110864
      10.9200     0.114653
      10.9300     0.118739
      10.9400     0.123145
      10.9500     0.127898
      10.9600     0.133029
      10.9700     0.138571
      10.9800     0.144566
      10.9900     0.151083
      11.0000     0.158189
      11.0100     0.165913
      11.0200     0.174326
      11.0300     0.183514
      11.0400     0.193573
      11.0500     0.204617
      11.0600     0.216785
      11.0700     0.249557
      11.0800     0.265832
      11.0900     0.283990
      11.1000     0.304341
      11.1100     0.301549
      11.1200     0.325285
      11.1300     0.352225
      11.1400     0.382900
      11.1500     0.417863
      11.1600     0.457634
      11.1700     0.502516
      11.1800     0.552267
      11.1900     0.605643
      11.2000     0.659831
      11.2100     0.710150
      11.2200     0.750600
      11.2300     0.775848
      11.2400     0.783646
      11.2500     0.775877
      11.2600     0.757411
      11.2700     0.733687
      11.2800     0.708881
      11.2900     0.740830
      11.3000     0.716415
      11.3100     0.694402
      11.3200     0.626805
      11.3300     0.609914
      11.3400     0.593353
      11.3500     0.576674
      11.3600     0.559590
      11.3700     0.541962
      11.3800     0.523775
      11.3900     0.505115
      11.4000     0.486128
      11.4100     0.466992
      11.4200     0.447901
      11.4300     0.429043
      11.4400     0.410585
      11.4500     0.392672
      11.4600     0.375417
      11.4700     0.358909
      11.4800     0.343211
      11.4900     0.328359
      11.5000     0.314372
      11.5100     0.301254
      11.5200     0.288995
      11.5300     0.277576
      11.5400     0.266970
      11.5500     0.257146
      11.5600     0.248072
      11.5700     0.239710
      11.5800     0.232027
      11.5900     0.224985
      11.6000     0.218538
      11.6100     0.212654
      11.6200     0.207314
      11.6300     0.202489
      11.6400     0.198151
      11.6500     0.194274
      11.6600     0.190834
      11.6700     0.187809
      11.6800     0.185176
      11.6900     0.182917
      11.7000     0.181015
      11.7100     0.179453
      11.7200     0.178215
      11.7300     0.177286
      11.7400     0.176652
      11.7500     0.176298
      11.7600     0.176210
      11.7700     0.176375
      11.7800     0.176778
      11.7900     0.177404
      11.8000     0.178237
      11.8100     0.179261
      11.8200     0.180457
      11.8300     0.181806
      11.8400     0.183287
      11.8500     0.184878
      11.8600     0.186553
      11.8700     0.188287
      11.8800     0.190054
      11.8900     0.191824
      11.9000     0.193568
      11.9100     0.195256
      11.9200     0.196860
      11.9300     0.198351
      11.9400     0.199703
      11.9500     0.200892
      11.9600     0.201897
      11.9700     0.202703
      11.9800     0.203274
      11.9900     0.203593
      12.0000     0.203691
      12.0100     0.203573
      12.0200     0.228434
      12.0300     0.227714
      12.0400     0.226766
      12.0500     0.225615
      12.0600     0.224279
      12.0700     0.222798
      12.0800     0.221211
      12.0900     0.219552
      12.1000     0.217857
      12.1100     0.216157
      12.1200     0.214487
      12.1300     0.212877
      12.1400     0.211354
      12.1500     0.209946
      12.1600     0.208678
      12.1700     0.207570
      12.1800     0.206644
      12.1900     0.205916
      12.2000     0.205403
      12.2100     0.205110
      12.2200     0.205051
      12.2300     0.205244
      12.2400     0.205700
      12.2500     0.206427
      12.2600     0.207434
      12.2700     0.208726
      12.2800     0.210312
      12.2900     0.212197
      12.3000     0.214386
      12.3100     0.216885
      12.3200     0.219697
      12.3300     0.222825
      12.3400     0.226272
      12.3500     0.230039
      12.3600     0.234122
      12.3700     0.238515
      12.3800     0.243223
      12.3900     0.250331
      12.4000     0.250094
      12.4100     0.256076
      12.4200     0.262365
      12.4300     0.268950
      12.4400     0.275794
      12.4500     0.282891
      12.4600     0.290230
      12.4700     0.297785
      12.4800     0.305531
      12.4900     0.313440
      12.5000     0.316273
      12.5100     0.323925
      12.5200     0.331559
      12.5300     0.339139
      12.5400     0.346632
      12.5500     0.354013
      12.5600     0.361269
      12.5700     0.368396
      12.5800     0.375405
      12.5900     0.382289
      12.6000     0.389072
      12.6100     0.378337
      12.6200     0.406334
      12.6300     0.415113
      12.6400     0.423741
      12.6500     0.431736
      12.6600     0.438343
      12.6700     0.442593
      12.6800     0.443451
      12.6900     0.403123
      12.7000     0.395972
      12.7100     0.420644
      12.7200     0.405825
      12.7300     0.389091
      12.7400     0.371528
      12.7500     0.353965
      12.7600     0.336962
      12.7700     0.320827
      12.7800     0.305695
      12.7900     0.291594
      12.8000     0.278485
      12.8100     0.266306
      12.8200     0.256313
      12.8300     0.246423
      12.8400     0.237136
      12.8500     0.228404
      12.8600     0.226056
      12.8700     0.217600
      12.8800     0.209678
      12.8900     0.202249
      12.9000     0.195274
      12.9100     0.188722
      12.9200     0.182564
      12.9300     0.176774
      12.9400     0.171328
      12.9500     0.166207
      12.9600     0.161390
      12.9700     0.156860
      12.9800     0.152601
      12.9900     0.148599
      13.0000     0.144841
      13.0100     0.141314
      13.0200     0.138008
      13.0300     0.134912
      13.0400     0.132017
      13.0500     0.129313
      13.0600     0.126794
      13.0700     0.122533
      13.0800     0.120258
      13.0900     0.120270
      13.1000     0.116191
      13.1100     0.114388
      13.1200     0.112730
      13.1300     0.111214
      13.1400     0.109835
      13.1500     0.108589
      13.1600     0.107473
      13.1700     0.109513
      13.1800     0.108773
      13.1900     0.108157
      13.2000     0.107660
      13.2100     0.107281
      13.2200     0.107016
      13.2300     0.106861
      13.2400     0.106814
      13.2500     0.106869
      13.2600     0.107022
      13.2700     0.100476
      13.2800     0.100667
      13.2900     0.100933
      13.3000     0.101266
      13.3100     0.101659
      13.3200     0.102101
      13.3300     0.102585
      13.3400     0.103097
      13.3500     0.103626
      13.3600     0.104158
      13.3700     0.104680
      13.3800     0.105177
      13.3900     0.105634
      13.4000     0.106034
      13.4100     0.106362
      13.4200     0.106604
      13.4300     0.106744
      13.4400     0.106771
      13.4500     0.106672
      13.4600     0.106438
      13.4700     0.106064
      13.4800     0.105546
      13.4900     0.104881
      13.5000     0.104071
      13.5100     0.103121
      13.5200     0.102037
      13.5300     0.100829
      13.5400    0.0995079
      13.5500    0.0980857
      13.5600    0.0965766
      13.5700    0.0949943
      13.5800    0.0933529
      13.5900    0.0916669
      13.6000    0.0899506
      13.6100    0.0882166
      13.6200    0.0864781
      13.6300    0.0847455
      13.6400    0.0830298
      13.6500    0.0813396
      13.6600    0.0796825
      13.6700    0.0780661
      13.6800    0.0764965
      13.6900    0.0749783
      13.7000    0.0735165
      13.7100    0.0721138
      13.7200    0.0707737
      13.7300    0.0694981
      13.7400    0.0682888
      13.7500    0.0671479
      13.7600    0.0660766
      13.7700    0.0650763
      13.7800    0.0641479
      13.7900    0.0632928
      13.8000    0.0625117
      13.8100    0.0618060
      13.8200    0.0611768
      13.8300    0.0606263
      13.8400    0.0601563
      13.8500    0.0597689
      13.8600    0.0594669
      13.8700    0.0592530
      13.8800    0.0591307
      13.8900    0.0591031
      13.9000    0.0591746
      13.9100    0.0593492
      13.9200    0.0596308
      13.9300    0.0600227
      13.9400    0.0605273
      13.9500    0.0611451
      13.9600    0.0618739
      13.9700    0.0627072
      13.9800    0.0636351
      13.9900    0.0646406
      14.0000    0.0657019
      14.0100    0.0667922
      14.0200    0.0678830
      14.0300    0.0689476
      14.0400    0.0699654
      14.0500    0.0709251
      14.0600    0.0718265
      14.0700    0.0726763
      14.0800    0.0734855
      14.0900    0.0742635
      14.1000    0.0750140
      14.1100    0.0757318
      14.1200    0.0764023
      14.1300    0.0770027
      14.1400    0.0775036
      14.1500    0.0778710
      14.1600    0.0780708
      14.1700    0.0780715
      14.1800    0.0778477
      14.1900    0.0773816
      14.2000    0.0766664
      14.2100    0.0757063
      14.2200    0.0745149
      14.2300    0.0731153
      14.2400    0.0715367
      14.2500    0.0698129
      14.2600    0.0679794
      14.2700    0.0660708
      14.2800    0.0641198
      14.2900    0.0621569
      14.3000    0.0602062
      14.3100    0.0582892
      14.3200    0.0564220
      14.3300    0.0546170
      14.3400    0.0528829
      14.3500    0.0512254
      14.3600    0.0496478
      14.3700    0.0481520
      14.3800    0.0467367
      14.3900    0.0454010
      14.4000    0.0441423
      14.4100    0.0429577
      14.4200    0.0418433
      14.4300    0.0407960
      14.4400    0.0398119
      14.4500    0.0388876
      14.4600    0.0380192
      14.4700    0.0372033
      14.4800    0.0364365
      14.4900    0.0357156
      14.5000    0.0350373
      14.5100    0.0343990
      14.5200    0.0337981
      14.5300    0.0332322
      14.5400    0.0326990
      14.5500    0.0321962
      14.5600    0.0317220
      14.5700    0.0312742
      14.5800    0.0308513
      14.5900    0.0304519
      14.6000    0.0300744
      14.6100    0.0297175
      14.6200    0.0293801
      14.6300    0.0290609
      14.6400    0.0287590
      14.6500    0.0284732
      14.6600    0.0282028
      14.6700    0.0279468
      14.6800    0.0277046
      14.6900    0.0274753
      14.7000    0.0272583
      14.7100    0.0261681
      14.7200    0.0268587
      14.7300    0.0266502
      14.7400    0.0264760
      14.7500    0.0263110
      14.7600    0.0261789
      14.7700    0.0260320
      14.7800    0.0258936
      14.7900    0.0257633
      14.8000    0.0256407
      14.8100    0.0255255
      14.8200    0.0254175
      14.8300    0.0253164
      14.8400    0.0252220
      14.8500    0.0251341
      14.8600    0.0250524
      14.8700    0.0249768
      14.8800    0.0249069
      14.8900    0.0248427
      14.9000    0.0247840
      14.9100    0.0247307
      14.9200    0.0246826
      14.9300    0.0246397
      14.9400    0.0246018
      14.9500    0.0245686
      14.9600    0.0245401
      14.9700    0.0245163
      14.9800    0.0244971
      14.9900    0.0244823
      15.0000    0.0244720
      15.0100    0.0244660
      15.0200    0.0244643
      15.0300    0.0244667
      15.0400    0.0240995
      15.0500    0.0241005
      15.0600    0.0241055
      15.0700    0.0241147
      15.0800    0.0245396
      15.0900    0.0245662
      15.1000    0.0245966
      15.1100    0.0246308
      15.1200    0.0246688
      15.1300    0.0247106
      15.1400    0.0247563
      15.1500    0.0248057
      15.1600    0.0248590
      15.1700    0.0249161
      15.1800    0.0249768
      15.1900    0.0250412
      15.2000    0.0251094
      15.2100    0.0251814
      15.2200    0.0252572
      15.2300    0.0253369
      15.2400    0.0254203
      15.2500    0.0255076
      15.2600    0.0255985
      15.2700    0.0256933
      15.2800    0.0257920
      15.2900    0.0258946
      15.3000    0.0260012
      15.3100    0.0261118
      15.3200    0.0262264
      15.3300    0.0263450
      15.3400    0.0264676
      15.3500    0.0265943
      15.3600    0.0267251
      15.3700    0.0268603
      15.3800    0.0269997
      15.3900    0.0271435
      15.4000    0.0272917
      15.4100    0.0274442
      15.4200    0.0276011
      15.4300    0.0277626
      15.4400    0.0279288
      15.4500    0.0280998
      15.4600    0.0282756
      15.4700    0.0284563
      15.4800    0.0286420
      15.4900    0.0288325
      15.5000    0.0290281
      15.5100    0.0292291
      15.5200    0.0294354
      15.5300    0.0296473
      15.5400    0.0298647
      15.5500    0.0300879
      15.5600    0.0303167
      15.5700    0.0305514
      15.5800    0.0307922
      15.5900    0.0310392
      15.6000    0.0312927
      15.6100    0.0315527
      15.6200    0.0318194
      15.6300    0.0320930
      15.6400    0.0323734
      15.6500    0.0326610
      15.6600    0.0329561
      15.6700    0.0332588
      15.6800    0.0335694
      15.6900    0.0338880
      15.7000    0.0342151
      15.7100    0.0345505
      15.7200    0.0348946
      15.7300    0.0352476
      15.7400    0.0356100
      15.7500    0.0359819
      15.7600    0.0363637
      15.7700    0.0367555
      15.7800    0.0371577
      15.7900    0.0375700
      15.8000    0.0379931
      15.8100    0.0384270
      15.8200    0.0388720
      15.8300    0.0393282
      15.8400    0.0397957
      15.8500    0.0402745
      15.8600    0.0407649
      15.8700    0.0412663
      15.8800    0.0417797
      15.8900    0.0423052
      15.9000    0.0428432
      15.9100    0.0433942
      15.9200    0.0439590
      15.9300    0.0445384
      15.9400    0.0451333
      15.9500    0.0457443
      15.9600    0.0463734
      15.9700    0.0470213
      15.9800    0.0476896
      15.9900    0.0483795
      16.0000    0.0490924
      16.0100    0.0498297
      16.0200    0.0505924
      16.0300    0.0513825
      16.0400    0.0502426
      16.0500    0.0510503
      16.0600    0.0518892
      16.0700    0.0527618
      16.0800    0.0536700
      16.0900    0.0546160
      16.1000    0.0556020
      16.1100    0.0589139
      16.1200    0.0600424
      16.1300    0.0612235
      16.1400    0.0624605
      16.1500    0.0637589
      16.1600    0.0651229
      16.1700    0.0665588
      16.1800    0.0680729
      16.1900    0.0696727
      16.2000    0.0713666
      16.2100    0.0731639
      16.2200    0.0750746
      16.2300    0.0771113
      16.2400    0.0792868
      16.2500    0.0816152
      16.2600    0.0841135
      16.2700    0.0867998
      16.2800    0.0896931
      16.2900    0.0922600
      16.3000    0.0957902
      16.3100    0.0957766
      16.3200     0.103773
      16.3300     0.108021
      16.3400     0.112589
      16.3500     0.117476
      16.3600     0.122662
      16.3700     0.128104
      16.3800     0.133726
      16.3900     0.139412
      16.4000     0.145002
      16.4100     0.150292
      16.4200     0.155052
      16.4300     0.159045
      16.4400     0.162063
      16.4500     0.163966
      16.4600     0.164705
      16.4700     0.164339
      16.4800     0.163017
      16.4900     0.160951
      16.5000     0.158380
      16.5100     0.155534
      16.5200     0.152613
      16.5300     0.149773
      16.5400     0.147126
      16.5500     0.144105
      16.5600     0.136456
      16.5700     0.140911
      16.5800     0.139477
      16.5900     0.138353
      16.6000     0.137521
      16.6100     0.136959
      16.6200     0.136645
      16.6300     0.136554
      16.6400     0.136666
      16.6500     0.136960
      16.6600     0.131162
      16.6700     0.131712
      16.6800     0.132385
      16.6900     0.133167
      16.7000     0.134044
      16.7100     0.135005
      16.7200     0.136038
      16.7300     0.137134
      16.7400     0.138282
      16.7500     0.139474
      16.7600     0.140701
      16.7700     0.141957
      16.7800     0.143232
      16.7900     0.144521
      16.8000     0.145815
      16.8100     0.147109
      16.8200     0.148396
      16.8300     0.149670
      16.8400     0.150924
      16.8500     0.152154
      16.8600     0.153353
      16.8700     0.154516
      16.8800     0.155638
      16.8900     0.156713
      16.9000     0.157738
      16.9100     0.158706
      16.9200     0.159614
      16.9300     0.160458
      16.9400     0.161236
      16.9500     0.161942
      16.9600     0.162575
      16.9700     0.163130
      16.9800     0.163607
      16.9900     0.164003
      17.0000     0.164318
      17.0100     0.164552
      17.0200     0.164704
      17.0300     0.164773
      17.0400     0.164761
      17.0500     0.164670
      17.0600     0.164500
      17.0700     0.164256
      17.0800     0.163940
      17.0900     0.163560
      17.1000     0.163116
      17.1100     0.155260
      17.1200     0.154841
      17.1300     0.154391
      17.1400     0.153918
      17.1500     0.153433
      17.1600     0.152948
      17.1700     0.152474
      17.1800     0.152024
      17.1900     0.152667
      17.2000     0.152010
      17.2100     0.151397
      17.2200     0.151168
      17.2300     0.150709
      17.2400     0.151779
      17.2500     0.154864
      17.2600     0.154814
      17.2700     0.154918
      17.2800     0.155186
      17.2900     0.161227
      17.3000     0.156185
      17.3100     0.161870
      17.3200     0.162268
      17.3300     0.162601
      17.3400     0.162748
      17.3500     0.162568
      17.3600     0.161918
      17.3700     0.160684
      17.3800     0.158800
      17.3900     0.156276
      17.4000     0.153182
      17.4100     0.149643
      17.4200     0.145806
      17.4300     0.141817
      17.4400     0.133511
      17.4500     0.129366
      17.4600     0.130047
      17.4700     0.121555
      17.4800     0.117954
      17.4900     0.114569
      17.5000     0.111394
      17.5100     0.108422
      17.5200     0.105639
      17.5300     0.103031
      17.5400     0.100587
      17.5500    0.0982939
      17.5600    0.0961378
      17.5700    0.0941078
      17.5800    0.0921950
      17.5900    0.0903918
      17.6000    0.0886913
      17.6100    0.0870882
      17.6200    0.0855811
      17.6300    0.0841629
      17.6400    0.0828313
      17.6500    0.0815833
      17.6600    0.0804184
      17.6700    0.0793349
      17.6800    0.0783326
      17.6900    0.0774123
      17.7000    0.0765756
      17.7100    0.0758200
      17.7200    0.0751455
      17.7300    0.0745511
      17.7400    0.0740356
      17.7500    0.0735960
      17.7600    0.0732274
      17.7700    0.0729248
      17.7800    0.0726767
      17.7900    0.0724675
      17.8000    0.0722791
      17.8100    0.0720888
      17.8200    0.0718704
      17.8300    0.0715949
      17.8400    0.0712331
      17.8500    0.0707608
      17.8600    0.0701524
      17.8700    0.0693932
      17.8800    0.0684783
      17.8900    0.0674123
      17.9000    0.0662100
      17.9100    0.0648931
      17.9200    0.0634894
      17.9300    0.0620274
      17.9400    0.0605330
      17.9500    0.0590297
      17.9600    0.0575394
      17.9700    0.0560775
      17.9800    0.0546571
      17.9900    0.0532859
      18.0000    0.0519715
      18.0100    0.0507149
      18.0200    0.0495166
      18.0300    0.0483760
      18.0400    0.0472917
      18.0500    0.0462609
      18.0600    0.0452814
      18.0700    0.0443508
      18.0800    0.0434673
      18.0900    0.0426265
      18.1000    0.0418258
      18.1100    0.0410622
      18.1200    0.0403338
      18.1300    0.0396379
      18.1400    0.0389730
      18.1500    0.0383375
      18.1600    0.0377298
      18.1700    0.0371475
      18.1800    0.0365890
      18.1900    0.0360532
      18.2000    0.0355389
      18.2100    0.0350448
      18.2200    0.0345701
      18.2300    0.0341152
      18.2400    0.0336781
      18.2500    0.0332578
      18.2600    0.0328539
      18.2700    0.0324657
      18.2800    0.0320927
      18.2900    0.0317344
      18.3000    0.0313910
      18.3100    0.0310624
      18.3200    0.0307475
      18.3300    0.0304460
      18.3400    0.0301578
      18.3500    0.0298827
      18.3600    0.0296205
      18.3700    0.0293713
      18.3800    0.0291357
      18.3900    0.0289132
      18.4000    0.0287036
      18.4100    0.0285071
      18.4200    0.0283236
      18.4300    0.0281534
      18.4400    0.0279967
      18.4500    0.0278540
      18.4600    0.0277261
      18.4700    0.0288446
      18.4800    0.0287787
      18.4900    0.0287303
      18.5000    0.0287001
      18.5100    0.0273132
      18.5200    0.0272797
      18.5300    0.0272646
      18.5400    0.0272688
      18.5500    0.0272926
      18.5600    0.0273373
      18.5700    0.0274038
      18.5800    0.0274934
      18.5900    0.0276074
      18.6000    0.0277473
      18.6100    0.0279152
      18.6200    0.0281123
      18.6300    0.0283402
      18.6400    0.0286010
      18.6500    0.0288966
      18.6600    0.0292292
      18.6700    0.0296009
      18.6800    0.0300143
      18.6900    0.0304717
      18.7000    0.0309752
      18.7100    0.0315266
      18.7200    0.0321281
      18.7300    0.0327808
      18.7400    0.0334862
      18.7500    0.0342444
      18.7600    0.0350552
      18.7700    0.0359167
      18.7800    0.0368252
      18.7900    0.0377753
      18.8000    0.0387598
      18.8100    0.0397684
      18.8200    0.0407881
      18.8300    0.0418027
      18.8400    0.0427936
      18.8500    0.0437381
      18.8600    0.0446123
      18.8700    0.0453901
      18.8800    0.0460462
      18.8900    0.0465559
      18.9000    0.0468983
      18.9100    0.0470572
      18.9200    0.0470224
      18.9300    0.0467902
      18.9400    0.0463647
      18.9500    0.0457570
      18.9600    0.0449839
      18.9700    0.0440668
      18.9800    0.0430302
      18.9900    0.0419000
      19.0000    0.0407012
      19.0100    0.0394578
      19.0200    0.0381913
      19.0300    0.0369203
      19.0400    0.0356605
      19.0500    0.0344245
      19.0600    0.0332222
      19.0700    0.0320606
      19.0800    0.0309446
      19.0900    0.0298774
      19.1000    0.0288606
      19.1100    0.0278946
      19.1200    0.0269793
      19.1300    0.0261128
      19.1400    0.0252943
      19.1500    0.0245212
      19.1600    0.0237919
      19.1700    0.0231036
      19.1800    0.0224542
      19.1900    0.0218413
      19.2000    0.0212626
      19.2100    0.0207160
      19.2200    0.0201996
      19.2300    0.0197110
      19.2400    0.0192485
      19.2500    0.0188103
      19.2600    0.0183949
      19.2700    0.0180006
      19.2800    0.0176261
      19.2900    0.0172698
      19.3000    0.0169308
      19.3100    0.0166077
      19.3200    0.0162997
      19.3300    0.0160056
      19.3400    0.0157245
      19.3500    0.0154557
      19.3600    0.0151984
      19.3700    0.0149517
      19.3800    0.0147152
      19.3900    0.0144880
      19.4000    0.0142698
      19.4100    0.0140599
      19.4200    0.0138578
      19.4300    0.0136632
      19.4400    0.0134756
      19.4500    0.0132944
      19.4600    0.0131196
      19.4700    0.0129506
      19.4800    0.0127872
      19.4900    0.0126291
      19.5000    0.0124759
      19.5100    0.0123275
      19.5200    0.0121836
      19.5300    0.0120439
      19.5400    0.0119084
      19.5500    0.0117766
      19.5600    0.0116486
      19.5700    0.0115241
      19.5800    0.0119465
      19.5900    0.0118148
      19.6000    0.0116867
      19.6100    0.0115619
      19.6200    0.0109487
      19.6300    0.0108421
      19.6400    0.0107381
      19.6500    0.0106366
      19.6600    0.0105374
      19.6700    0.0104405
      19.6800    0.0103456
      19.6900    0.0102529
      19.7000    0.0101622
      19.7100    0.0100735
      19.7200   0.00998656
      19.7300   0.00990146
      19.7400   0.00981809
      19.7500   0.00973634
      19.7600   0.00965617
      19.7700   0.00957756
      19.7800   0.00950046
      19.7900   0.00942481
      19.8000   0.00935057
      19.8100   0.00927771
      19.8200   0.00920615
      19.8300   0.00913578
      19.8400   0.00906665
      19.8500   0.00899872
      19.8600   0.00893195
      19.8700   0.00886633
      19.8800   0.00880177
      19.8900   0.00873830
      19.9000   0.00867581
      19.9100   0.00861429
      19.9200   0.00855374
      19.9300   0.00849414
      19.9400   0.00843547
      19.9500   0.00837769
      19.9600   0.00832079
      19.9700   0.00826475
      19.9800   0.00820946
      19.9900   0.00815497
      20.0000   0.00810127
      20.0100   0.00804834
      20.0200   0.00799615
      20.0300   0.00794472
      20.0400   0.00789397
      20.0500   0.00784393
      20.0600   0.00779449
      20.0700   0.00774573
      20.0800   0.00769762
      20.0900   0.00765014
      20.1000   0.00760329
      20.1100   0.00755704
      20.1200   0.00751139
      20.1300   0.00746629
      20.1400   0.00742172
      20.1500   0.00737770
      20.1600   0.00733423
      20.1700   0.00729130
      20.1800   0.00724889
      20.1900   0.00720701
      20.2000   0.00716561
      20.2100   0.00712465
      20.2200   0.00708416
      20.2300   0.00704416
      20.2400   0.00700462
      20.2500   0.00696553
      20.2600   0.00692690
      20.2700   0.00688870
      20.2800   0.00685091
      20.2900   0.00681351
      20.3000   0.00677651
      20.3100   0.00673993
      20.3200   0.00670374
      20.3300   0.00666796
      20.3400   0.00663256
      20.3500   0.00659755
      20.3600   0.00656285
      20.3700   0.00652851
      20.3800   0.00649453
      20.3900   0.00646091
      20.4000   0.00642764
      20.4100   0.00639471
      20.4200   0.00636213
      20.4300   0.00632987
      20.4400   0.00629788
      20.4500   0.00626622
      20.4600   0.00623487
      20.4700   0.00620383
      20.4800   0.00617311
      20.4900   0.00614269
      20.5000   0.00611256
      20.5100   0.00608270
      20.5200   0.00605310
      20.5300   0.00602379
      20.5400   0.00599476
      20.5500   0.00596601
      20.5600   0.00593753
      20.5700   0.00590932
      20.5800   0.00588138
      20.5900   0.00585364
      20.6000   0.00582616
      20.6100   0.00579893
      20.6200   0.00577196
      20.6300   0.00574523
      20.6400   0.00571875
      20.6500   0.00569250
      20.6600   0.00566649
      20.6700   0.00564066
      20.6800   0.00561507
      20.6900   0.00558970
      20.7000   0.00556456
      20.7100   0.00553964
      20.7200   0.00551495
      20.7300   0.00549047
      20.7400   0.00546617
      20.7500   0.00544205
      20.7600   0.00541815
      20.7700   0.00539446
      20.7800   0.00537097
      20.7900   0.00534768
      20.8000   0.00532459
      20.8100   0.00530169
      20.8200   0.00527894
      20.8300   0.00525638
      20.8400   0.00523401
      20.8500   0.00521182
      20.8600   0.00518982
      20.8700   0.00516800
      20.8800   0.00514636
      20.8900   0.00512488
      20.9000   0.00510355
      20.9100   0.00508239
      20.9200   0.00506140
      20.9300   0.00504058
      20.9400   0.00501994
      20.9500   0.00499945
      20.9600   0.00497913
      20.9700   0.00495894
      20.9800   0.00493890
      20.9900   0.00491901
      21.0000   0.00489929
      21.0100   0.00487972
      21.0200   0.00486030
      21.0300   0.00484103
      21.0400   0.00482191
      21.0500   0.00480290
      21.0600   0.00478404
      21.0700   0.00476532
      21.0800   0.00474674
      21.0900   0.00472831
      21.1000   0.00471002
      21.1100   0.00469186
      21.1200   0.00467383
      21.1300   0.00465591
      21.1400   0.00463813
      21.1500   0.00462048
      21.1600   0.00460296
      21.1700   0.00458557
      21.1800   0.00456831
      21.1900   0.00455118
      21.2000   0.00453414
      21.2100   0.00451723
      21.2200   0.00450044
      21.2300   0.00448377
      21.2400   0.00446722
      21.2500   0.00445080
      21.2600   0.00443449
      21.2700   0.00441829
      21.2800   0.00440218
      21.2900   0.00438619
      21.3000   0.00437032
      21.3100   0.00435456
      21.3200   0.00433891
      21.3300   0.00432337
      21.3400   0.00430794
      21.3500   0.00429260
      21.3600   0.00427735
      21.3700   0.00426222
      21.3800   0.00424719
      21.3900   0.00423226
      21.4000   0.00421744
      21.4100   0.00420273
      21.4200   0.00418811
      21.4300   0.00417356
      21.4400   0.00415912
      21.4500   0.00414477
      21.4600   0.00413053
      21.4700   0.00411638
      21.4800   0.00410233
      21.4900   0.00408837
      21.5000   0.00407450
      21.5100   0.00406070
      21.5200   0.00404700
      21.5300   0.00403340
      21.5400   0.00401988
      21.5500   0.00400645
      21.5600   0.00399311
      21.5700   0.00397987
      21.5800   0.00396669
      21.5900   0.00395359
      21.6000   0.00394058
      21.6100   0.00392765
      21.6200   0.00391481
      21.6300   0.00390206
      21.6400   0.00388939
      21.6500   0.00387680
      21.6600   0.00386427
      21.6700   0.00385182
      21.6800   0.00383945
      21.6900   0.00382717
      21.7000   0.00381496
      21.7100   0.00380283
      21.7200   0.00379078
      21.7300   0.00377880
      21.7400   0.00376688
      21.7500   0.00375504
      21.7600   0.00374328
      21.7700   0.00373159
      21.7800   0.00371997
      21.7900   0.00370843
      21.8000   0.00369696
      21.8100   0.00368555
      21.8200   0.00367420
      21.8300   0.00366293
      21.8400   0.00365173
      21.8500   0.00364060
      21.8600   0.00362954
      21.8700   0.00361855
      21.8800   0.00360761
      21.8900   0.00359674
      21.9000   0.00358593
      21.9100   0.00357519
      21.9200   0.00356452
      21.9300   0.00355391
      21.9400   0.00354337
      21.9500   0.00353290
      21.9600   0.00352247
      21.9700   0.00351211
      21.9800   0.00350180
      21.9900   0.00349156
      22.0000   0.00348139
      22.0100   0.00347127
      22.0200   0.00346122
      22.0300   0.00345122
      22.0400   0.00344128
      22.0500   0.00343139
      22.0600   0.00342156
      22.0700   0.00341179
      22.0800   0.00340208
      22.0900   0.00339243
      22.1000   0.00338284
      22.1100   0.00337329
      22.1200   0.00336380
      22.1300   0.00335436
      22.1400   0.00334498
      22.1500   0.00333565
      22.1600   0.00332638
      22.1700   0.00331717
      22.1800   0.00330801
      22.1900   0.00329889
      22.2000   0.00328982
      22.2100   0.00328081
      22.2200   0.00327185
      22.2300   0.00326294
      22.2400   0.00325409
      22.2500   0.00324529
      22.2600   0.00323653
      22.2700   0.00322782
      22.2800   0.00321916
      22.2900   0.00321054
      22.3000   0.00320198
      22.3100   0.00319347
      22.3200   0.00318501
      22.3300   0.00317659
      22.3400   0.00316822
      22.3500   0.00315989
      22.3600   0.00315161
      22.3700   0.00314338
      22.3800   0.00313519
      22.3900   0.00312706
      22.4000   0.00311896
      22.4100   0.00311092
      22.4200   0.00310291
      22.4300   0.00309494
      22.4400   0.00308702
      22.4500   0.00307915
      22.4600   0.00307132
      22.4700   0.00306354
      22.4800   0.00305580
      22.4900   0.00304810
      22.5000   0.00304044
      22.5100   0.00303282
      22.5200   0.00302524
      22.5300   0.00301771
      22.5400   0.00301022
      22.5500   0.00300277
      22.5600   0.00299537
      22.5700   0.00298799
      22.5800   0.00298066
      22.5900   0.00297337
      22.6000   0.00296612
      22.6100   0.00295891
      22.6200   0.00295174
      22.6300   0.00294461
      22.6400   0.00293752
      22.6500   0.00293047
      22.6600   0.00292345
      22.6700   0.00291647
      22.6800   0.00290953
      22.6900   0.00290262
      22.7000   0.00289576
      22.7100   0.00288894
      22.7200   0.00288215
      22.7300   0.00287539
      22.7400   0.00286867
      22.7500   0.00286198
      22.7600   0.00285534
      22.7700   0.00284873
      22.7800   0.00284216
      22.7900   0.00283562
      22.8000   0.00282911
      22.8100   0.00282264
      22.8200   0.00281621
      22.8300   0.00280981
      22.8400   0.00280344
      22.8500   0.00279711
      22.8600   0.00279082
      22.8700   0.00278456
      22.8800   0.00277832
      22.8900   0.00277212
      22.9000   0.00276596
      22.9100   0.00275983
      22.9200   0.00275373
      22.9300   0.00274767
      22.9400   0.00274164
      22.9500   0.00273563
      22.9600   0.00272966
      22.9700   0.00272373
      22.9800   0.00271782
      22.9900   0.00271195
      23.0000   0.00270611
      23.0100   0.00270030
      23.0200   0.00269452
      23.0300   0.00268877
      23.0400   0.00268305
      23.0500   0.00267736
      23.0600   0.00267170
      23.0700   0.00266607
      23.0800   0.00266048
      23.0900   0.00265491
      23.1000   0.00264937
      23.1100   0.00264386
      23.1200   0.00263838
      23.1300   0.00263293
      23.1400   0.00262751
      23.1500   0.00262212
      23.1600   0.00261676
      23.1700   0.00261142
      23.1800   0.00260611
      23.1900   0.00260084
      23.2000   0.00259558
      23.2100   0.00259036
      23.2200   0.00258517
      23.2300   0.00258000
      23.2400   0.00257487
      23.2500   0.00256976
      23.2600   0.00256467
      23.2700   0.00255961
      23.2800   0.00255458
      23.2900   0.00254958
      23.3000   0.00254460
      23.3100   0.00253965
      23.3200   0.00253473
      23.3300   0.00252983
      23.3400   0.00252496
      23.3500   0.00252012
      23.3600   0.00251530
      23.3700   0.00251050
      23.3800   0.00250574
      23.3900   0.00250100
      23.4000   0.00249628
      23.4100   0.00249159
      23.4200   0.00248692
      23.4300   0.00248228
      23.4400   0.00247767
      23.4500   0.00247308
      23.4600   0.00246851
      23.4700   0.00246397
      23.4800   0.00245946
      23.4900   0.00245496
      23.5000   0.00245049
      23.5100   0.00244605
      23.5200   0.00244163
      23.5300   0.00243723
      23.5400   0.00243286
      23.5500   0.00242852
      23.5600   0.00242419
      23.5700   0.00241989
      23.5800   0.00241561
      23.5900   0.00241135
      23.6000   0.00240712
      23.6100   0.00240291
      23.6200   0.00239873
      23.6300   0.00239457
      23.6400   0.00239043
      23.6500   0.00238631
      23.6600   0.00238222
      23.6700   0.00237814
      23.6800   0.00237409
      23.6900   0.00237007
      23.7000   0.00236607
      23.7100   0.00236208
      23.7200   0.00235812
      23.7300   0.00235418
      23.7400   0.00235026
      23.7500   0.00234637
      23.7600   0.00234250
      23.7700   0.00233864
      23.7800   0.00233482
      23.7900   0.00233100
      23.8000   0.00232722
      23.8100   0.00232345
      23.8200   0.00231970
      23.8300   0.00231598
      23.8400   0.00231228
      23.8500   0.00230859
      23.8600   0.00230493
      23.8700   0.00230129
      23.8800   0.00229767
      23.8900   0.00229407
      23.9000   0.00229049
      23.9100   0.00228693
      23.9200   0.00228339
      23.9300   0.00227988
      23.9400   0.00227638
      23.9500   0.00227290
      23.9600   0.00226944
      23.9700   0.00226600
      23.9800   0.00226258
      23.9900   0.00225918
      24.0000   0.00225581
      24.0100   0.00225245
      24.0200   0.00224911
      24.0300   0.00224579
      24.0400   0.00224249
      24.0500   0.00246289
      24.0600   0.00245966
      24.0700   0.00245646
      24.0800   0.00245328
      24.0900   0.00245011
      24.1000   0.00244697
      24.1100   0.00244385
      24.1200   0.00244076
      24.1300   0.00243768
      24.1400   0.00243463
      24.1500   0.00243160
      24.1600   0.00242859
      24.1700   0.00242560
      24.1800   0.00242264
      24.1900   0.00241969
      24.2000   0.00241676
      24.2100   0.00241386
      24.2200   0.00241098
      24.2300   0.00240812
      24.2400   0.00240528
      24.2500   0.00240246
      24.2600   0.00239966
      24.2700   0.00239688
      24.2800   0.00239412
      24.2900   0.00239139
      24.3000   0.00238867
      24.3100   0.00238598
      24.3200   0.00238330
      24.3300   0.00238064
      24.3400   0.00237801
      24.3500   0.00237539
      24.3600   0.00237280
      24.3700   0.00237023
      24.3800   0.00236767
      24.3900   0.00236514
      24.4000   0.00236263
      24.4100   0.00236013
      24.4200   0.00235766
      24.4300   0.00235520
      24.4400   0.00235277
      24.4500   0.00235035
      24.4600   0.00234796
      24.4700   0.00234559
      24.4800   0.00234323
      24.4900   0.00234089
      24.5000   0.00233857
      24.5100   0.00233628
      24.5200   0.00233400
      24.5300   0.00233174
      24.5400   0.00232950
      24.5500   0.00232728
      24.5600   0.00232508
      24.5700   0.00232290
      24.5800   0.00232074
      24.5900   0.00231859
      24.6000   0.00231647
      24.6100   0.00231437
      24.6200   0.00231228
      24.6300   0.00231021
      24.6400   0.00230816
      24.6500   0.00230613
      24.6600   0.00230412
      24.6700   0.00230213
      24.6800   0.00230016
      24.6900   0.00229821
      24.7000   0.00229627
      24.7100   0.00229435
      24.7200   0.00229245
      24.7300   0.00229057
      24.7400   0.00228871
      24.7500   0.00228687
      24.7600   0.00228505
      24.7700   0.00228324
      24.7800   0.00228145
      24.7900   0.00227968
      24.8000   0.00227793
      24.8100   0.00227620
      24.8200   0.00227449
      24.8300   0.00227279
      24.8400   0.00227111
      24.8500   0.00226946
      24.8600   0.00226781
      24.8700   0.00226619
      24.8800   0.00226458
      24.8900   0.00226300
      24.9000   0.00226143
      24.9100   0.00225988
      24.9200   0.00225835
      24.9300   0.00225683
      24.9400   0.00225534
      24.9500   0.00225386
      24.9600   0.00225240
      24.9700   0.00225096
      24.9800   0.00224953
      24.9900   0.00224813
